# exp. cross sections as a function of missing momentum 
# all cross sections include the bin correction factor 
#
# theta_nq = 45.0 
#
# Averaged for all contributing bins
#
# p_miss_av     : fm^-1, missing momentum (use for plotting averaged results)
# rho           : fm^3, reduced cross section (momentum distribution) 
# delta_rho     : fm^3, total error in reduced cross section (momentum distribution) 
# delta_rho1    : fm^3, total error in reduced cross section including chi2 of averaging 
#
# Kinematics and cross section for each contributing bin: 
#
#  th_e         : electron scattering angle (deg)
#  Ei           : incident energy (MeV)
#  omega        : energy transfer (MeV) 
#  qlab         : 3-momentum transfer in lab (MeV/c)
#  cos_phi      : cos(phi), phi reaction plane angle
#  pf           : final proton momentum (MeV/c)
#  p_miss       : averaged missing momentum (MeV/c)
#  th_nq        : angle between recoiling neutron and qlab
#  sig_exp      : exp. cross section for this bin (nb/(MeV Sr^2))
#  dsig_exp     : error in exp cross section for this bin (nb/(MeV Sr^2))
#  sig_red_exp  : exp. red. cross section (rho) for this bin (fm^3)
#  dsig_red_exp : error in red. cross section (drho) for this bin (fm^3)
#  bc           : bin centering correction factor used: sig_exp_raw * bc = exp. cross section at avg. kinematics reported above 
#
# common values for Nr indicate kinematic settings that contribute to the same missing momentum bin and are used in averaging
#
#! Nr[i,0]/ p_miss_av[f,1]/ rho[f,2]/ delta_rho[f,3]/ delta_rho1[f,4]/ th_e[f,5]/ Ei[f,6]/ omega[f,7]/ qlab[f,8]/ cos_phi[f, 9]/ pf[f,10]/ p_miss[f,11]/ th_nq[f,12]/ sig_exp[f,13]/ dsig_exp[f,14]/ bc[f,15]/ sig_red_exp[f,16]/ 
0 0.151  6.370e+00  1.143e+00  1.143e+00 12.279 10599.418 2131.865 2941.335 -0.11858 2920.355   31.473  47.966  2.009e+00  3.605e-01 1.04084  6.370e+00
1 0.306  1.244e+00  6.687e-02  6.687e-02 12.386 10598.876 2113.396 2941.657 -0.20523 2899.328   62.411  46.847  3.777e-01  2.030e-02 0.83183  1.244e+00
2 0.493  2.464e-01  1.050e-02  1.050e-02 12.507 10598.653 2093.701 2943.086 -0.04589 2875.305   99.207  46.194  7.051e-02  3.004e-03 0.79282  2.464e-01
3 0.693  6.714e-02  3.696e-03  3.696e-03 12.627 10598.538 2075.044 2945.394 0.15538 2850.492  138.440  45.736  1.786e-02  9.831e-04 0.81400  6.714e-02
4 0.895  2.074e-02  1.764e-03  1.764e-03 12.701 10598.680 2049.880 2938.749 0.33597 2816.993  178.375  45.670  5.209e-03  4.431e-04 0.84361  2.074e-02
5 1.098  5.217e-03  8.723e-04  8.723e-04 12.776 10598.668 2029.644 2935.361 0.45070 2786.969  218.252  45.581  1.238e-03  2.071e-04 0.86123  5.217e-03
6 1.303  2.810e-03  6.825e-04  6.825e-04 12.859 10598.687 2015.759 2937.010 0.49708 2762.057  257.816  45.390  6.332e-04  1.538e-04 0.89646  2.810e-03
7 1.507  7.843e-04  3.923e-04  3.923e-04 12.950 10598.647 2008.923 2943.911 0.50199 2742.827  297.900  45.368  1.684e-04  8.424e-05 0.90822  7.843e-04
8 1.711  7.269e-04  4.198e-04  4.198e-04 13.031 10598.667 2005.286 2951.600 0.48234 2725.405  337.974  45.503  1.506e-04  8.696e-05 0.92403  7.269e-04
9 1.915  3.089e-04  3.089e-04  3.089e-04 13.100 10598.691 2003.861 2959.156 0.46011 2708.714  378.275  45.736  6.223e-05  6.224e-05 0.93334  3.089e-04
10 2.188  1.972e-02  2.683e-02  2.683e-02 11.585 10599.954 1566.938 2521.182 -0.98517 2218.253  431.761  41.833  1.736e-02  2.362e-02 1.24380  1.972e-02
11 2.327  3.664e-04  2.724e-04  2.724e-04 13.213 10598.641 2009.557 2976.203 0.41036 2680.677  457.495  46.310  1.143e-04  1.144e-04 0.94180  5.893e-04
11 2.327  3.664e-04  2.724e-04  2.724e-04 11.722 10599.695 1602.422 2558.383 -0.97226 2240.393  466.716  43.096  2.539e-04  2.550e-04 1.05003  3.058e-04
12 2.550  1.017e-04  4.049e-05  5.206e-05 11.827 10599.350 1626.571 2585.298 -0.95986 2248.340  503.380  43.687  1.456e-04  5.961e-05 0.99905  1.824e-04
12 2.550  1.017e-04  4.049e-05  5.206e-05 11.831 10599.339 1627.438 2586.248 -0.96001 2249.261  503.416  43.688  5.424e-05  3.839e-05 1.00267  6.809e-05
13 2.744  6.903e-05  1.784e-05  1.784e-05 11.920 10599.084 1650.394 2610.378 -0.94702 2253.980  541.691  44.211  5.325e-05  2.015e-05 0.98023  6.889e-05
13 2.744  6.903e-05  1.784e-05  1.784e-05 11.925 10599.091 1651.534 2611.674 -0.94679 2255.138  541.831  44.206  5.326e-05  1.885e-05 0.98146  6.914e-05
14 2.941  4.388e-05  9.893e-06  1.054e-05 12.003 10598.801 1673.210 2633.660 -0.93112 2257.006  580.739  44.565  2.524e-05  9.547e-06 0.96966  3.366e-05
14 2.941  4.388e-05  9.893e-06  1.054e-05 12.002 10598.927 1673.517 2633.768 -0.93222 2257.304  580.799  44.593  4.418e-05  1.182e-05 0.96891  5.885e-05
14 2.941  4.388e-05  9.893e-06  1.054e-05 11.642 10599.629 1551.996 2520.878 -0.97855 2122.007  586.168  42.021  3.047e-04  3.086e-04 1.05388  3.138e-04
15 3.141  4.009e-05  7.697e-06  7.697e-06 12.086 10598.749 1698.358 2658.314 -0.91633 2261.311  620.062  44.840  3.663e-05  8.642e-06 0.96181  5.046e-05
15 3.141  4.009e-05  7.697e-06  7.697e-06 12.084 10598.647 1698.193 2657.912 -0.91517 2261.086  620.139  44.864  2.326e-05  7.360e-06 0.96236  3.201e-05
15 3.141  4.009e-05  7.697e-06  7.697e-06 11.748 10599.358 1583.892 2551.922 -0.97436 2134.750  623.554  42.565  1.070e-04  1.072e-04 1.00794  1.154e-04
16 3.343  2.356e-05  4.605e-06  4.605e-06 12.161 10598.425 1724.090 2682.096 -0.89756 2265.188  659.422  45.088  1.791e-05  5.667e-06 0.96061  2.546e-05
16 3.343  2.356e-05  4.605e-06  4.605e-06 12.161 10598.582 1724.309 2682.216 -0.89881 2265.279  659.659  45.098  1.561e-05  4.939e-06 0.95969  2.217e-05
16 3.343  2.356e-05  4.605e-06  4.605e-06 11.833 10599.257 1614.878 2579.733 -0.96601 2144.898  661.977  43.129  1.542e-05  8.908e-06 0.99548  1.721e-05
16 3.343  2.356e-05  4.605e-06  4.605e-06 11.832 10599.193 1614.401 2579.370 -0.96589 2144.342  662.033  43.111  7.497e-05  3.357e-05 0.99739  8.365e-05
16 3.343  2.356e-05  4.605e-06  4.605e-06 11.833 10599.257 1614.804 2579.710 -0.96685 2144.747  662.089  43.122  5.193e-05  3.674e-05 0.99065  5.795e-05
17 3.545  3.330e-05  4.607e-06  4.607e-06 12.237 10598.376 1751.499 2707.104 -0.88086 2269.761  699.000  45.232  2.379e-05  6.145e-06 0.95465  3.499e-05
17 3.545  3.330e-05  4.607e-06  4.607e-06 12.236 10598.421 1751.605 2707.069 -0.88084 2269.727  699.230  45.244  2.333e-05  5.663e-06 0.95709  3.430e-05
17 3.545  3.330e-05  4.607e-06  4.607e-06 11.908 10599.120 1645.287 2606.073 -0.95866 2153.006  701.116  43.568  2.340e-05  1.171e-05 0.98634  2.694e-05
17 3.545  3.330e-05  4.607e-06  4.607e-06 11.908 10599.064 1645.720 2606.250 -0.95881 2153.454  701.154  43.597  2.076e-05  1.468e-05 0.98812  2.389e-05
17 3.545  3.330e-05  4.607e-06  4.607e-06 11.908 10599.056 1645.135 2605.942 -0.95811 2152.813  701.156  43.564  3.142e-05  8.126e-06 0.98855  3.617e-05
18 3.747  1.785e-05  2.934e-06  2.934e-06 12.306 10598.317 1779.821 2731.843 -0.86440 2274.125  738.971  45.351  1.674e-05  4.645e-06 0.95262  2.543e-05
18 3.747  1.785e-05  2.934e-06  2.934e-06 12.310 10598.364 1779.528 2732.113 -0.86358 2273.749  739.059  45.297  1.189e-05  4.205e-06 0.95124  1.811e-05
18 3.747  1.785e-05  2.934e-06  2.934e-06 11.975 10598.817 1674.133 2630.534 -0.95002 2158.462  740.294  43.849  5.733e-06  5.733e-06 0.97875  6.788e-06
18 3.747  1.785e-05  2.934e-06  2.934e-06 11.976 10598.870 1674.744 2630.980 -0.94997 2159.066  740.385  43.869  1.639e-05  4.384e-06 0.98021  1.941e-05
18 3.747  1.785e-05  2.934e-06  2.934e-06 11.976 10598.861 1674.522 2630.818 -0.95001 2158.780  740.451  43.860  1.658e-05  7.419e-06 0.98009  1.964e-05
19 3.948  1.778e-05  2.669e-06  2.849e-06 12.371 10598.312 1808.762 2756.303 -0.84898 2278.395  778.751  45.432  9.063e-06  3.701e-06 0.95381  1.420e-05
19 3.948  1.778e-05  2.669e-06  2.849e-06 12.371 10598.252 1809.384 2756.680 -0.84983 2279.036  778.797  45.458  1.853e-05  4.956e-06 0.95564  2.903e-05
19 3.948  1.778e-05  2.669e-06  2.849e-06 12.036 10598.694 1704.090 2654.943 -0.94183 2164.040  779.794  44.095  1.446e-05  3.412e-06 0.97713  1.758e-05
19 3.948  1.778e-05  2.669e-06  2.849e-06 12.036 10598.701 1703.888 2654.817 -0.94182 2163.792  779.834  44.086  2.029e-05  6.767e-06 0.97588  2.467e-05
19 3.948  1.778e-05  2.669e-06  2.849e-06 12.039 10598.783 1704.617 2655.577 -0.94217 2164.576  779.850  44.091  7.989e-06  5.649e-06 0.97590  9.726e-06
20 4.150  1.491e-05  2.305e-06  2.305e-06 12.429 10598.129 1838.832 2780.755 -0.83551 2283.036  818.555  45.508  9.814e-06  4.007e-06 0.94963  1.582e-05
20 4.150  1.491e-05  2.305e-06  2.305e-06 12.427 10598.165 1838.366 2780.212 -0.83559 2282.465  818.650  45.508  7.145e-06  3.196e-06 0.94780  1.151e-05
20 4.150  1.491e-05  2.305e-06  2.305e-06 12.093 10598.596 1735.159 2679.503 -0.93343 2169.923  819.405  44.303  1.377e-05  2.938e-06 0.97561  1.717e-05
20 4.150  1.491e-05  2.305e-06  2.305e-06 12.094 10598.454 1735.334 2679.774 -0.93318 2170.076  819.459  44.296  9.254e-06  5.343e-06 0.97769  1.155e-05
20 4.150  1.491e-05  2.305e-06  2.305e-06 12.093 10598.698 1735.322 2679.702 -0.93355 2169.979  819.575  44.299  1.232e-05  4.660e-06 0.97385  1.538e-05
21 4.352  8.133e-06  1.667e-06  2.069e-06 12.479 10598.242 1869.298 2804.535 -0.82234 2287.321  858.362  45.571  1.285e-05  4.545e-06 0.94752  2.125e-05
21 4.352  8.133e-06  1.667e-06  2.069e-06 12.481 10598.162 1870.028 2805.235 -0.82316 2288.102  858.374  45.579  5.480e-06  3.164e-06 0.94573  9.071e-06
21 4.352  8.133e-06  1.667e-06  2.069e-06 12.151 10598.434 1767.808 2705.309 -0.92588 2176.670  859.119  44.439  8.187e-06  2.115e-06 0.97500  1.050e-05
21 4.352  8.133e-06  1.667e-06  2.069e-06 12.151 10598.503 1767.550 2705.210 -0.92572 2176.363  859.156  44.425  4.677e-06  2.701e-06 0.97489  6.002e-06
21 4.352  8.133e-06  1.667e-06  2.069e-06 12.150 10598.471 1767.481 2705.051 -0.92590 2176.156  859.334  44.427  2.648e-06  2.648e-06 0.97250  3.396e-06
22 4.553  1.121e-05  1.956e-06  1.956e-06 12.520 10598.098 1901.395 2828.211 -0.81083 2292.655  898.139  45.684  6.473e-06  3.738e-06 0.94761  1.093e-05
22 4.553  1.121e-05  1.956e-06  1.956e-06 12.522 10598.174 1902.007 2828.783 -0.81249 2293.248  898.232  45.690  5.751e-06  3.321e-06 0.94508  9.709e-06
22 4.553  1.121e-05  1.956e-06  1.956e-06 12.202 10598.430 1799.852 2730.037 -0.91871 2182.045  898.801  44.511  9.021e-06  2.128e-06 0.97376  1.187e-05
22 4.553  1.121e-05  1.956e-06  1.956e-06 12.201 10598.339 1799.910 2729.870 -0.91927 2182.107  898.801  44.527  1.288e-05  4.294e-06 0.97616  1.692e-05
22 4.553  1.121e-05  1.956e-06  1.956e-06 12.200 10598.393 1800.041 2729.842 -0.91901 2182.198  898.871  44.538  5.045e-06  3.568e-06 0.97697  6.628e-06
23 4.755  7.314e-06  1.693e-06  1.779e-06 12.553 10598.071 1934.736 2851.776 -0.80328 2298.524  938.075  45.810  2.769e-06  2.769e-06 0.94924  4.743e-06
23 4.755  7.314e-06  1.693e-06  1.779e-06 12.247 10598.186 1833.414 2754.894 -0.91181 2188.376  938.488  44.609  2.453e-06  2.453e-06 0.97672  3.301e-06
23 4.755  7.314e-06  1.693e-06  1.779e-06 12.246 10598.316 1833.428 2754.805 -0.91211 2188.298  938.611  44.614  7.886e-06  1.973e-06 0.97875  1.060e-05
23 4.755  7.314e-06  1.693e-06  1.779e-06 12.248 10598.273 1833.557 2755.158 -0.91225 2188.393  938.669  44.599  5.591e-06  2.796e-06 0.97783  7.527e-06
24 4.956  1.134e-05  2.235e-06  2.316e-06 12.581 10597.984 1969.663 2875.853 -0.79967 2305.701  977.691  45.946  3.079e-06  3.079e-06 0.96315  5.330e-06
24 4.956  1.134e-05  2.235e-06  2.316e-06 12.579 10598.030 1969.380 2875.465 -0.79852 2305.257  977.870  45.946  3.444e-06  3.445e-06 0.96087  5.960e-06
24 4.956  1.134e-05  2.235e-06  2.316e-06 12.291 10598.204 1866.642 2779.609 -0.90590 2193.537  978.379  44.613  1.167e-05  4.128e-06 0.98121  1.606e-05
24 4.956  1.134e-05  2.235e-06  2.316e-06 12.293 10598.216 1867.048 2780.151 -0.90609 2193.841  978.554  44.605  9.716e-06  2.231e-06 0.97672  1.339e-05
25 5.159  6.886e-06  1.737e-06  1.737e-06 12.596 10597.983 2005.836 2899.360 -0.79812 2313.370 1017.623  46.121  4.048e-06  4.048e-06 0.99321  7.024e-06
25 5.159  6.886e-06  1.737e-06  1.737e-06 12.607 10597.950 2005.822 2900.744 -0.79777 2313.282 1017.715  46.036  9.459e-06  6.691e-06 0.96872  1.654e-05
25 5.159  6.886e-06  1.737e-06  1.737e-06 12.329 10598.100 1900.088 2804.000 -0.90025 2198.435 1018.126  44.593  4.664e-06  2.693e-06 0.97589  6.550e-06
25 5.159  6.886e-06  1.737e-06  1.737e-06 12.329 10598.030 1900.722 2804.355 -0.90042 2199.097 1018.160  44.615  8.141e-06  4.701e-06 0.98066  1.143e-05
25 5.159  6.886e-06  1.737e-06  1.737e-06 12.329 10598.091 1900.274 2804.073 -0.90022 2198.607 1018.164  44.601  4.383e-06  1.550e-06 0.97831  6.155e-06
26 5.361  3.991e-06  1.746e-06  1.746e-06 12.619 10597.868 2041.201 2923.627 -0.79670 2319.902 1057.169  46.139  1.142e-05  8.078e-06 0.99388  1.998e-05
26 5.361  3.991e-06  1.746e-06  1.746e-06 12.615 10597.790 2041.679 2923.417 -0.79690 2320.378 1057.219  46.180  6.669e-06  6.670e-06 0.99806  1.164e-05
26 5.361  3.991e-06  1.746e-06  1.746e-06 12.371 10598.034 1934.909 2829.806 -0.89444 2204.139 1058.017  44.527  2.475e-06  1.238e-06 0.99109  3.559e-06
27 5.562  5.816e-06  1.921e-06  1.921e-06 12.628 10597.631 2078.186 2947.310 -0.79670 2327.351 1097.084  46.229  9.903e-06  9.906e-06 1.01341  1.730e-05
27 5.562  5.816e-06  1.921e-06  1.921e-06 12.641 10597.705 2078.309 2948.907 -0.79765 2327.293 1097.317  46.145  7.997e-06  8.000e-06 1.00080  1.408e-05
27 5.562  5.816e-06  1.921e-06  1.921e-06 12.411 10597.980 1968.439 2854.667 -0.88738 2208.081 1097.686  44.390  3.664e-06  1.639e-06 1.00397  5.397e-06
27 5.562  5.816e-06  1.921e-06  1.921e-06 12.410 10597.935 1968.278 2854.488 -0.88723 2207.902 1097.692  44.389  4.076e-06  2.882e-06 1.00469  6.001e-06
27 5.562  5.816e-06  1.921e-06  1.921e-06 12.409 10598.023 1968.524 2854.467 -0.88752 2208.124 1097.746  44.405  3.603e-06  3.603e-06 1.00485  5.299e-06
28 5.764  6.075e-06  2.224e-06  2.224e-06 12.652 10597.674 2114.570 2972.770 -0.79713 2333.770 1136.849  46.141  1.200e-05  1.201e-05 1.02166  2.116e-05
28 5.764  6.075e-06  2.224e-06  2.224e-06 12.440 10597.919 2002.098 2878.486 -0.88137 2211.633 1137.391  44.279  8.752e-06  6.190e-06 1.02263  1.312e-05
28 5.764  6.075e-06  2.224e-06  2.224e-06 12.444 10597.915 2002.098 2879.027 -0.88159 2211.618 1137.409  44.250  4.383e-06  1.961e-06 1.01386  6.586e-06
28 5.764  6.075e-06  2.224e-06  2.224e-06 12.443 10597.957 2002.095 2878.945 -0.88166 2211.534 1137.505  44.252  2.460e-06  2.460e-06 1.01515  3.695e-06
29 5.944  4.336e-06  2.398e-06  2.398e-06 12.472 10597.857 2032.929 2901.217 -0.87589 2215.034 1173.097  44.116  2.354e-06  1.665e-06 0.98844  3.602e-06
29 5.944  4.336e-06  2.398e-06  2.398e-06 12.471 10597.892 2033.044 2901.123 -0.87596 2215.114 1173.149  44.126  6.568e-06  4.646e-06 0.98761  1.004e-05
